#ritz_wl_air(nm)	intens
377.06368	9000
379.79044	17000
#383.53909	30000
#388.90557	70000
397.00788	30000
410.17415	70000
434.0471	90000
486.1333	180000
656.2819	500000
824.9974	90
825.2399	90
825.5019	90
825.7856	110
826.0936	110
826.4285	110
826.7938	110
827.1931	140
827.6309	140
828.1123	140
828.6432	140
829.2308	170
829.8835	210
830.6113	250
831.4261	290
832.3425	290
833.3783	370
834.5553	500
835.9004	500
